# Cursors in Graph
f in Hz	A in dBV
180.175781	-14.083661
313.476562	-14.437041
416.015625	-14.577601
520.019531	-14.056776
692.871094	-14.851352

# Spectral Data
f in Hz	A in dBV
0.000000	-14.161875
1.464844	-13.419807
2.929687	-12.803672
4.394531	-12.317586
5.859375	-11.958446
7.324219	-11.708610
8.789062	-11.582637
10.253906	-11.539871
11.718750	-11.561551
13.183594	-11.657681
14.648437	-11.808830
16.113281	-11.928750
17.578125	-12.058095
19.042969	-12.193081
20.507812	-12.295315
21.972656	-12.386519
23.437500	-12.459022
24.902344	-12.526619
26.367187	-12.562649
27.832031	-12.613645
29.296875	-12.668747
30.761719	-12.728464
32.226562	-12.792784
33.691406	-12.832347
35.156250	-12.866032
36.621094	-12.868064
38.085937	-12.901525
39.550781	-12.937448
41.015625	-12.965522
42.480469	-13.026366
43.945312	-13.067383
45.410156	-13.086364
46.875000	-13.117730
48.339844	-13.112193
49.804687	-13.057950
51.269531	-12.906775
52.734375	-12.690966
54.199219	-12.486464
55.664062	-12.401092
57.128906	-12.476857
58.593750	-12.690154
60.058594	-12.941337
61.523437	-13.104650
62.988281	-13.175463
64.453125	-13.192360
65.917969	-13.165277
67.382812	-13.133664
68.847656	-13.120425
70.312500	-13.076067
71.777344	-12.998228
73.242187	-12.966478
74.707031	-12.950505
76.171875	-12.958096
77.636719	-12.937150
79.101562	-12.963880
80.566406	-12.987593
82.031250	-13.013816
83.496094	-13.092181
84.960937	-13.128720
86.425781	-13.101901
87.890625	-13.127413
89.355469	-13.188766
90.820312	-13.247231
92.285156	-13.252110
93.750000	-13.267857
95.214844	-13.264657
96.679687	-13.274580
98.144531	-13.305017
99.609375	-13.343135
101.074219	-13.360729
102.539062	-13.339539
104.003906	-13.347408
105.468750	-13.334478
106.933594	-13.363053
108.398437	-13.365630
109.863281	-13.394714
111.328125	-13.403927
112.792969	-13.428295
114.257812	-13.421087
115.722656	-13.413433
117.187500	-13.372795
118.652344	-13.334802
120.117187	-13.305381
121.582031	-13.250738
123.046875	-13.128072
124.511719	-13.025983
125.976562	-12.919759
127.441406	-12.797218
128.906250	-12.659173
130.371094	-12.519389
131.835937	-12.364652
133.300781	-12.290451
134.765625	-12.292999
136.230469	-12.384483
137.695312	-12.531844
139.160156	-12.744179
140.625000	-12.944757
142.089844	-13.103428
143.554687	-13.240942
145.019531	-13.363534
146.484375	-13.501988
147.949219	-13.615777
149.414062	-13.648002
150.878906	-13.636974
152.343750	-13.479789
153.808594	-13.233812
155.273437	-13.099075
156.738281	-13.128278
158.203125	-13.316036
159.667969	-13.617553
161.132812	-13.892679
162.597656	-13.994277
164.062500	-14.029066
165.527344	-14.070766
166.992187	-14.084623
168.457031	-14.079475
169.921875	-14.050873
171.386719	-14.069551
172.851562	-14.086097
174.316406	-14.092733
175.781250	-14.074653
177.246094	-14.063791
178.710937	-14.056931
180.175781	-14.083661
181.640625	-14.110382
183.105469	-14.144027
184.570312	-14.173659
186.035156	-14.155708
187.500000	-14.139652
188.964844	-14.147297
190.429687	-14.167389
191.894531	-14.178568
193.359375	-14.142505
194.824219	-14.103831
196.289062	-14.101607
197.753906	-14.109450
199.218750	-14.105430
200.683594	-14.109907
202.148437	-14.119105
203.613281	-14.087661
205.078125	-14.055172
206.542969	-14.018887
208.007812	-13.994847
209.472656	-13.963614
210.937500	-13.959361
212.402344	-13.957267
213.867187	-13.937211
215.332031	-13.935772
216.796875	-13.901996
218.261719	-13.890167
219.726562	-13.869661
221.191406	-13.846103
222.656250	-13.815449
224.121094	-13.786795
225.585937	-13.778699
227.050781	-13.718123
228.515625	-13.654779
229.980469	-13.607879
231.445312	-13.576075
232.910156	-13.555349
234.375000	-13.520147
235.839844	-13.517618
237.304687	-13.523870
238.769531	-13.472987
240.234375	-13.437298
241.699219	-13.406060
243.164062	-13.385267
244.628906	-13.321739
246.093750	-13.257488
247.558594	-13.203691
249.023437	-13.129755
250.488281	-13.070089
251.953125	-13.000169
253.417969	-12.888941
254.882812	-12.765563
256.347656	-12.671007
257.812500	-12.567478
259.277344	-12.489387
260.742187	-12.463358
262.207031	-12.432431
263.671875	-12.388656
265.136719	-12.421525
266.601562	-12.487651
268.066406	-12.594349
269.531250	-12.703845
270.996094	-12.828438
272.460937	-12.942757
273.925781	-13.074122
275.390625	-13.156584
276.855469	-13.236177
278.320312	-13.299522
279.785156	-13.370012
281.250000	-13.460299
282.714844	-13.574666
284.179687	-13.691200
285.644531	-13.783516
287.109375	-13.856268
288.574219	-13.914269
290.039062	-13.946769
291.503906	-14.014599
292.968750	-14.077663
294.433594	-14.149465
295.898437	-14.236100
297.363281	-14.262204
298.828125	-14.266184
300.292969	-14.272692
301.757812	-14.330744
303.222656	-14.354396
304.687500	-14.391883
306.152344	-14.399557
307.617187	-14.390271
309.082031	-14.410644
310.546875	-14.427107
312.011719	-14.436334
313.476562	-14.437041
314.941406	-14.425438
316.406250	-14.427705
317.871094	-14.425842
319.335937	-14.441283
320.800781	-14.450375
322.265625	-14.462167
323.730469	-14.495142
325.195312	-14.515714
326.660156	-14.541597
328.125000	-14.558136
329.589844	-14.578225
331.054687	-14.581906
332.519531	-14.591280
333.984375	-14.585764
335.449219	-14.598069
336.914062	-14.613933
338.378906	-14.633276
339.843750	-14.665065
341.308594	-14.659248
342.773437	-14.640429
344.238281	-14.632112
345.703125	-14.617822
347.167969	-14.611264
348.632812	-14.641309
350.097656	-14.660642
351.562500	-14.619281
353.027344	-14.534310
354.492187	-14.443665
355.957031	-14.403463
357.421875	-14.453705
358.886719	-14.540013
360.351562	-14.641364
361.816406	-14.664403
363.281250	-14.714025
364.746094	-14.693820
366.210937	-14.689140
367.675781	-14.682541
369.140625	-14.670853
370.605469	-14.665893
372.070312	-14.658774
373.535156	-14.600896
375.000000	-14.555022
376.464844	-14.499309
377.929687	-14.469530
379.394531	-14.428519
380.859375	-14.378459
382.324219	-14.356952
383.789062	-14.319137
385.253906	-14.221169
386.718750	-14.099003
388.183594	-13.981991
389.648437	-13.885755
391.113281	-13.789302
392.578125	-13.748107
394.042969	-13.771959
395.507812	-13.859272
396.972656	-13.950613
398.437500	-14.038427
399.902344	-14.123366
401.367187	-14.210871
402.832031	-14.310908
404.296875	-14.354741
405.761719	-14.406953
407.226562	-14.424264
408.691406	-14.481697
410.156250	-14.529314
411.621094	-14.559544
413.085937	-14.560571
414.550781	-14.560803
416.015625	-14.577601
417.480469	-14.595367
418.945312	-14.644738
420.410156	-14.672001
421.875000	-14.671564
423.339844	-14.689527
424.804687	-14.702708
426.269531	-14.723340
427.734375	-14.705469
429.199219	-14.703034
430.664062	-14.693284
432.128906	-14.685581
433.593750	-14.690209
435.058594	-14.670939
436.523437	-14.652724
437.988281	-14.644587
439.453125	-14.635829
440.917969	-14.652165
442.382812	-14.674765
443.847656	-14.683736
445.312500	-14.654971
446.777344	-14.619726
448.242187	-14.586998
449.707031	-14.566737
451.171875	-14.535478
452.636719	-14.432967
454.101562	-14.293924
455.566406	-14.214021
457.031250	-14.232957
458.496094	-14.351987
459.960937	-14.470426
461.425781	-14.505813
462.890625	-14.536125
464.355469	-14.551915
465.820312	-14.515660
467.285156	-14.499620
468.750000	-14.493757
470.214844	-14.502638
471.679687	-14.490579
473.144531	-14.529689
474.609375	-14.565419
476.074219	-14.565305
477.539062	-14.571964
479.003906	-14.570821
480.468750	-14.582655
481.933594	-14.517703
483.398437	-14.515548
484.863281	-14.538808
486.328125	-14.565112
487.792969	-14.563450
489.257812	-14.565522
490.722656	-14.561528
492.187500	-14.567358
493.652344	-14.549892
495.117187	-14.542289
496.582031	-14.536596
498.046875	-14.536067
499.511719	-14.553660
500.976562	-14.562739
502.441406	-14.543477
503.906250	-14.511864
505.371094	-14.476963
506.835937	-14.440782
508.300781	-14.426725
509.765625	-14.374527
511.230469	-14.332956
512.695312	-14.306239
514.160156	-14.249953
515.625000	-14.191664
517.089844	-14.140067
518.554687	-14.109029
520.019531	-14.056776
521.484375	-14.003366
522.949219	-13.982483
524.414062	-14.005707
525.878906	-14.065063
527.343750	-14.158280
528.808594	-14.225339
530.273437	-14.303009
531.738281	-14.389266
533.203125	-14.461054
534.667969	-14.517701
536.132812	-14.556416
537.597656	-14.606946
539.062500	-14.703929
540.527344	-14.739260
541.992187	-14.789628
543.457031	-14.849277
544.921875	-14.874974
546.386719	-14.879420
547.851562	-14.878990
549.316406	-14.896388
550.781250	-14.892083
552.246094	-14.845293
553.710937	-14.741776
555.175781	-14.648981
556.640625	-14.640159
558.105469	-14.719941
559.570312	-14.820596
561.035156	-14.909823
562.500000	-14.955830
563.964844	-14.975461
565.429687	-14.997931
566.894531	-15.020208
568.359375	-15.037811
569.824219	-15.031242
571.289062	-15.038651
572.753906	-15.026904
574.218750	-15.028262
575.683594	-15.027105
577.148437	-15.012824
578.613281	-15.006951
580.078125	-14.999434
581.542969	-14.995338
583.007812	-15.002537
584.472656	-15.034386
585.937500	-15.020351
587.402344	-15.021359
588.867187	-15.010438
590.332031	-14.997910
591.796875	-14.974900
593.261719	-14.976701
594.726562	-14.995556
596.191406	-15.018853
597.656250	-15.026697
599.121094	-15.010351
600.585937	-15.032414
602.050781	-15.030701
603.515625	-15.049042
604.980469	-15.040843
606.445312	-15.032945
607.910156	-15.033050
609.375000	-15.060303
610.839844	-15.074900
612.304687	-15.049498
613.769531	-15.027554
615.234375	-15.008597
616.699219	-15.011875
618.164062	-15.009358
619.628906	-15.002161
621.093750	-15.013279
622.558594	-14.979951
624.023437	-14.993280
625.488281	-15.009950
626.953125	-15.002601
628.417969	-14.972704
629.882812	-14.969496
631.347656	-14.931254
632.812500	-14.909201
634.277344	-14.914183
635.742187	-14.883607
637.207031	-14.832838
638.671875	-14.779017
640.136719	-14.694031
641.601562	-14.589027
643.066406	-14.524665
644.531250	-14.404826
645.996094	-14.312029
647.460937	-14.263275
648.925781	-14.212902
650.390625	-14.163565
651.855469	-14.135543
653.320312	-14.123189
654.785156	-14.165975
656.250000	-14.211277
657.714844	-14.235068
659.179687	-14.259634
660.644531	-14.308248
662.109375	-14.398886
663.574219	-14.470451
665.039062	-14.514046
666.503906	-14.553040
667.968750	-14.593907
669.433594	-14.623277
670.898437	-14.653917
672.363281	-14.674599
673.828125	-14.721891
675.292969	-14.763351
676.757812	-14.783647
678.222656	-14.754775
679.687500	-14.752301
681.152344	-14.725613
682.617187	-14.722998
684.082031	-14.748990
685.546875	-14.781446
687.011719	-14.777674
688.476562	-14.822644
689.941406	-14.845656
691.406250	-14.861990
692.871094	-14.851352
694.335937	-14.826408
695.800781	-14.829456
697.265625	-14.847104
698.730469	-14.857469
700.195312	-14.850028
701.660156	-14.879625
703.125000	-14.912943
704.589844	-14.965089
706.054687	-14.965373
707.519531	-14.925636
708.984375	-14.911359
710.449219	-14.908543
711.914062	-14.929246
713.378906	-14.957744
714.843750	-14.957719
716.308594	-14.946757
717.773437	-14.978395
719.238281	-14.986736
720.703125	-14.967084
722.167969	-14.958022
723.632812	-14.971057
725.097656	-15.004390
726.562500	-15.024118
728.027344	-15.054400
729.492187	-15.060448
730.957031	-15.042040
732.421875	-15.039808
733.886719	-15.027128
735.351562	-15.025148
736.816406	-15.056509
738.281250	-15.048845
739.746094	-15.025666
741.210937	-15.008841
742.675781	-15.022017
744.140625	-15.036839
745.605469	-15.045847
747.070312	-15.056745
748.535156	-15.071492
750.000000	-15.065139
751.464844	-15.000097
752.929687	-14.877412
754.394531	-14.736989
755.859375	-14.662807
757.324219	-14.706015
758.789062	-14.794331
760.253906	-14.946797
761.718750	-15.028382
763.183594	-15.063650
764.648437	-15.069027
766.113281	-15.027629
767.578125	-15.020090
769.042969	-14.971583
770.507812	-14.960036
771.972656	-14.918181
773.437500	-14.875324
774.902344	-14.798132
776.367187	-14.770731
777.832031	-14.742309
779.296875	-14.727974
780.761719	-14.708633
782.226562	-14.685369
783.691406	-14.692376
785.156250	-14.723887
786.621094	-14.824913
788.085937	-14.883121
789.550781	-14.926946
791.015625	-14.960612
792.480469	-14.985758
793.945312	-15.018860
795.410156	-15.056302
796.875000	-15.091919
798.339844	-15.127601
799.804687	-15.143128
801.269531	-15.153668
802.734375	-15.136266
804.199219	-15.140313
805.664062	-15.161335
807.128906	-15.160596
808.593750	-15.166512
810.058594	-15.187320
811.523437	-15.196352
812.988281	-15.226712
814.453125	-15.247176
815.917969	-15.229559
817.382812	-15.177285
818.847656	-15.168285
820.312500	-15.189771
821.777344	-15.218898
823.242187	-15.232559
824.707031	-15.216907
826.171875	-15.173409
827.636719	-15.149539
829.101562	-15.145555
830.566406	-15.182217
832.031250	-15.199919
833.496094	-15.178419
834.960937	-15.192027
836.425781	-15.226957
837.890625	-15.218510
839.355469	-15.220127
840.820312	-15.217481
842.285156	-15.231234
843.750000	-15.244464
845.214844	-15.288963
846.679687	-15.262452
848.144531	-15.233394
849.609375	-15.234153
851.074219	-15.202673
852.539062	-15.114366
854.003906	-14.990848
855.468750	-14.915633
856.933594	-14.919741
858.398437	-15.016345
859.863281	-15.125335
861.328125	-15.202149
862.792969	-15.206639
864.257812	-15.242404
865.722656	-15.249565
867.187500	-15.263362
868.652344	-15.235985
870.117187	-15.204611
871.582031	-15.186082
873.046875	-15.172035
874.511719	-15.167314
875.976562	-15.192351
877.441406	-15.235288
878.906250	-15.262424
880.371094	-15.256264
881.835937	-15.180598
883.300781	-15.167435
884.765625	-15.162081
886.230469	-15.201663
887.695312	-15.223857
889.160156	-15.186621
890.625000	-15.161891
892.089844	-15.137790
893.554687	-15.108023
895.019531	-15.077566
896.484375	-15.043262
897.949219	-15.012393
899.414062	-14.999055
900.878906	-14.970062
902.343750	-14.870679
903.808594	-14.788508
905.273437	-14.692173
906.738281	-14.624305
908.203125	-14.623523
909.667969	-14.601885
911.132812	-14.598802
912.597656	-14.595665
914.062500	-14.595617
915.527344	-14.638513
916.992187	-14.692637
918.457031	-14.740825
919.921875	-14.762114
921.386719	-14.806316
922.851562	-14.867523
924.316406	-14.920668
925.781250	-14.964420
927.246094	-14.989734
928.710937	-15.010564
930.175781	-15.037145
931.640625	-15.088675
933.105469	-15.143676
934.570312	-15.159123
936.035156	-15.148464
937.500000	-15.123501
938.964844	-15.140412
940.429687	-15.163434
941.894531	-15.177513
943.359375	-15.199432
944.824219	-15.208379
946.289062	-15.217801
947.753906	-15.211143
949.218750	-15.196809
950.683594	-15.192703
952.148437	-15.167050
953.613281	-15.109699
955.078125	-15.056149
956.542969	-15.032874
958.007812	-15.076740
959.472656	-15.163078
960.937500	-15.205638
962.402344	-15.218781
963.867187	-15.255911
965.332031	-15.282318
966.796875	-15.274031
968.261719	-15.280549
969.726562	-15.298259
971.191406	-15.314509
972.656250	-15.311553
974.121094	-15.286858
975.585937	-15.278355
977.050781	-15.300520
978.515625	-15.316808
979.980469	-15.317040
981.445312	-15.347545
982.910156	-15.341824
984.375000	-15.296301
985.839844	-15.299948
987.304687	-15.315906
988.769531	-15.335744
990.234375	-15.368498
991.699219	-15.366759
993.164062	-15.367917
994.628906	-15.373754
996.093750	-15.387982
997.558594	-15.382092

