# Cursors in Graph
f in Hz	A in dBV
180.175781	-14.565864
313.476562	-14.758472
416.015625	-14.133769
520.019531	-15.143104
692.871094	-14.522397

# Spectral Data
f in Hz	A in dBV
0.000000	-14.786261
1.464844	-13.994775
2.929687	-13.319270
4.394531	-12.781394
5.859375	-12.320402
7.324219	-11.979750
8.789062	-11.777852
10.253906	-11.706060
11.718750	-11.741337
13.183594	-11.814136
14.648437	-11.953118
16.113281	-12.105328
17.578125	-12.272905
19.042969	-12.413303
20.507812	-12.538873
21.972656	-12.676343
23.437500	-12.804000
24.902344	-12.902215
26.367187	-12.947175
27.832031	-12.965767
29.296875	-12.999921
30.761719	-13.058221
32.226562	-13.110688
33.691406	-13.174348
35.156250	-13.243934
36.621094	-13.279473
38.085937	-13.278553
39.550781	-13.237737
41.015625	-13.223048
42.480469	-13.223853
43.945312	-13.287012
45.410156	-13.343625
46.875000	-13.398700
48.339844	-13.433784
49.804687	-13.393236
51.269531	-13.133518
52.734375	-12.771361
54.199219	-12.532121
55.664062	-12.436245
57.128906	-12.501351
58.593750	-12.721763
60.058594	-13.060430
61.523437	-13.355414
62.988281	-13.477843
64.453125	-13.492254
65.917969	-13.444883
67.382812	-13.391570
68.847656	-13.347873
70.312500	-13.339841
71.777344	-13.322078
73.242187	-13.270635
74.707031	-13.210739
76.171875	-13.197700
77.636719	-13.200331
79.101562	-13.213110
80.566406	-13.236492
82.031250	-13.244701
83.496094	-13.261234
84.960937	-13.324584
86.425781	-13.380823
87.890625	-13.419109
89.355469	-13.461660
90.820312	-13.482984
92.285156	-13.504121
93.750000	-13.489929
95.214844	-13.492111
96.679687	-13.486488
98.144531	-13.504665
99.609375	-13.553006
101.074219	-13.592536
102.539062	-13.656090
104.003906	-13.667544
105.468750	-13.653519
106.933594	-13.674049
108.398437	-13.728299
109.863281	-13.760179
111.328125	-13.772614
112.792969	-13.773541
114.257812	-13.739658
115.722656	-13.724240
117.187500	-13.691014
118.652344	-13.650651
120.117187	-13.626654
121.582031	-13.621516
123.046875	-13.601906
124.511719	-13.552277
125.976562	-13.499892
127.441406	-13.452708
128.906250	-13.391553
130.371094	-13.312843
131.835937	-13.160216
133.300781	-13.029723
134.765625	-12.832386
136.230469	-12.667778
137.695312	-12.540353
139.160156	-12.443407
140.625000	-12.449861
142.089844	-12.539753
143.554687	-12.669523
145.019531	-12.827882
146.484375	-13.029422
147.949219	-13.207884
149.414062	-13.413849
150.878906	-13.508083
152.343750	-13.491616
153.808594	-13.324825
155.273437	-13.237666
156.738281	-13.258037
158.203125	-13.448121
159.667969	-13.767550
161.132812	-14.100346
162.597656	-14.315995
164.062500	-14.419387
165.527344	-14.433589
166.992187	-14.461529
168.457031	-14.503316
169.921875	-14.529752
171.386719	-14.540799
172.851562	-14.564827
174.316406	-14.559966
175.781250	-14.567931
177.246094	-14.571542
178.710937	-14.576400
180.175781	-14.565864
181.640625	-14.610148
183.105469	-14.665872
184.570312	-14.664977
186.035156	-14.695699
187.500000	-14.696450
188.964844	-14.691754
190.429687	-14.666262
191.894531	-14.648673
193.359375	-14.617536
194.824219	-14.626310
196.289062	-14.622696
197.753906	-14.589404
199.218750	-14.541551
200.683594	-14.516187
202.148437	-14.478837
203.613281	-14.450772
205.078125	-14.460395
206.542969	-14.449854
208.007812	-14.454879
209.472656	-14.449188
210.937500	-14.462131
212.402344	-14.433944
213.867187	-14.392889
215.332031	-14.370648
216.796875	-14.329978
218.261719	-14.278709
219.726562	-14.236005
221.191406	-14.212456
222.656250	-14.192155
224.121094	-14.178765
225.585937	-14.121625
227.050781	-14.081795
228.515625	-14.007959
229.980469	-13.974215
231.445312	-13.957045
232.910156	-13.964932
234.375000	-13.963334
235.839844	-13.951751
237.304687	-13.929599
238.769531	-13.912196
240.234375	-13.874556
241.699219	-13.840483
243.164062	-13.792839
244.628906	-13.801282
246.093750	-13.784804
247.558594	-13.737515
249.023437	-13.720326
250.488281	-13.691640
251.953125	-13.643812
253.417969	-13.543691
254.882812	-13.468116
256.347656	-13.441534
257.812500	-13.415554
259.277344	-13.383670
260.742187	-13.340224
262.207031	-13.286359
263.671875	-13.203457
265.136719	-13.123123
266.601562	-13.053314
268.066406	-13.002615
269.531250	-12.927325
270.996094	-12.819858
272.460937	-12.759024
273.925781	-12.728645
275.390625	-12.690910
276.855469	-12.693444
278.320312	-12.707906
279.785156	-12.785424
281.250000	-12.854912
282.714844	-12.964520
284.179687	-13.088832
285.644531	-13.212004
287.109375	-13.353085
288.574219	-13.519035
290.039062	-13.680928
291.503906	-13.822818
292.968750	-13.934344
294.433594	-14.024626
295.898437	-14.119448
297.363281	-14.231697
298.828125	-14.338947
300.292969	-14.412548
301.757812	-14.478974
303.222656	-14.479082
304.687500	-14.512755
306.152344	-14.562869
307.617187	-14.622891
309.082031	-14.657005
310.546875	-14.713175
312.011719	-14.729079
313.476562	-14.758472
314.941406	-14.796529
316.406250	-14.842998
317.871094	-14.913146
319.335937	-14.969433
320.800781	-15.025454
322.265625	-15.053673
323.730469	-15.089180
325.195312	-15.162662
326.660156	-15.211424
328.125000	-15.266626
329.589844	-15.318501
331.054687	-15.347762
332.519531	-15.362652
333.984375	-15.388876
335.449219	-15.432923
336.914062	-15.460145
338.378906	-15.509871
339.843750	-15.532348
341.308594	-15.588357
342.773437	-15.609467
344.238281	-15.645591
345.703125	-15.644940
347.167969	-15.628091
348.632812	-15.621556
350.097656	-15.496646
351.562500	-15.229164
353.027344	-14.914416
354.492187	-14.700659
355.957031	-14.637587
357.421875	-14.725658
358.886719	-14.964785
360.351562	-15.293731
361.816406	-15.568469
363.281250	-15.652708
364.746094	-15.651204
366.210937	-15.647907
367.675781	-15.633105
369.140625	-15.611446
370.605469	-15.603184
372.070312	-15.611941
373.535156	-15.632277
375.000000	-15.607686
376.464844	-15.559431
377.929687	-15.500541
379.394531	-15.463146
380.859375	-15.412813
382.324219	-15.385814
383.789062	-15.327595
385.253906	-15.272037
386.718750	-15.202354
388.183594	-15.131303
389.648437	-15.108021
391.113281	-15.091399
392.578125	-15.073735
394.042969	-15.039868
395.507812	-14.979793
396.972656	-14.937373
398.437500	-14.837842
399.902344	-14.725971
401.367187	-14.630850
402.832031	-14.493479
404.296875	-14.372568
405.761719	-14.234340
407.226562	-14.089518
408.691406	-13.977675
410.156250	-13.904532
411.621094	-13.899970
413.085937	-13.932412
414.550781	-14.011178
416.015625	-14.133769
417.480469	-14.265332
418.945312	-14.366654
420.410156	-14.476248
421.875000	-14.559190
423.339844	-14.625955
424.804687	-14.704951
426.269531	-14.781243
427.734375	-14.848314
429.199219	-14.876941
430.664062	-14.839521
432.128906	-14.850485
433.593750	-14.899547
435.058594	-14.929569
436.523437	-14.953023
437.988281	-14.961661
439.453125	-14.980146
440.917969	-14.988534
442.382812	-14.994481
443.847656	-14.997331
445.312500	-14.973993
446.777344	-14.988062
448.242187	-14.991101
449.707031	-14.990014
451.171875	-14.880363
452.636719	-14.690518
454.101562	-14.518955
455.566406	-14.414533
457.031250	-14.438071
458.496094	-14.590327
459.960937	-14.773542
461.425781	-14.913193
462.890625	-14.947765
464.355469	-14.961322
465.820312	-14.954570
467.285156	-14.976580
468.750000	-14.978750
470.214844	-14.996685
471.679687	-15.003803
473.144531	-14.969872
474.609375	-14.950714
476.074219	-14.968734
477.539062	-15.002349
479.003906	-15.017869
480.468750	-15.026544
481.933594	-14.998995
483.398437	-14.979321
484.863281	-14.959046
486.328125	-14.923876
487.792969	-14.936336
489.257812	-14.971625
490.722656	-14.993269
492.187500	-15.008274
493.652344	-14.992220
495.117187	-15.002382
496.582031	-15.037346
498.046875	-15.064868
499.511719	-15.054766
500.976562	-15.080658
502.441406	-15.088092
503.906250	-15.094628
505.371094	-15.105699
506.835937	-15.106062
508.300781	-15.103555
509.765625	-15.102779
511.230469	-15.128811
512.695312	-15.107065
514.160156	-15.101036
515.625000	-15.113356
517.089844	-15.135034
518.554687	-15.137701
520.019531	-15.143104
521.484375	-15.164351
522.949219	-15.155296
524.414062	-15.157756
525.878906	-15.143300
527.343750	-15.141507
528.808594	-15.139522
530.273437	-15.119250
531.738281	-15.083688
533.203125	-15.010291
534.667969	-14.914639
536.132812	-14.868954
537.597656	-14.787691
539.062500	-14.706810
540.527344	-14.629215
541.992187	-14.588150
543.457031	-14.515232
544.921875	-14.461403
546.386719	-14.385096
547.851562	-14.353511
549.316406	-14.388068
550.781250	-14.451140
552.246094	-14.513874
553.710937	-14.610619
555.175781	-14.656258
556.640625	-14.743030
558.105469	-14.909370
559.570312	-15.118126
561.035156	-15.244154
562.500000	-15.339537
563.964844	-15.442500
565.429687	-15.494609
566.894531	-15.544886
568.359375	-15.614743
569.824219	-15.689961
571.289062	-15.758352
572.753906	-15.822846
574.218750	-15.870473
575.683594	-15.922115
577.148437	-15.967127
578.613281	-15.984650
580.078125	-16.026650
581.542969	-16.065362
583.007812	-16.048969
584.472656	-16.035882
585.937500	-16.059684
587.402344	-16.085771
588.867187	-16.171780
590.332031	-16.213151
591.796875	-16.203321
593.261719	-16.200418
594.726562	-16.213106
596.191406	-16.235286
597.656250	-16.242717
599.121094	-16.260515
600.585937	-16.254458
602.050781	-16.256551
603.515625	-16.271757
604.980469	-16.281849
606.445312	-16.283116
607.910156	-16.304777
609.375000	-16.324143
610.839844	-16.306228
612.304687	-16.296824
613.769531	-16.327363
615.234375	-16.345011
616.699219	-16.366798
618.164062	-16.371381
619.628906	-16.364399
621.093750	-16.358102
622.558594	-16.307066
624.023437	-16.301265
625.488281	-16.339127
626.953125	-16.305577
628.417969	-16.266411
629.882812	-16.257402
631.347656	-16.240409
632.812500	-16.231490
634.277344	-16.198596
635.742187	-16.151574
637.207031	-16.122427
638.671875	-16.079455
640.136719	-16.049972
641.601562	-16.023211
643.066406	-16.001167
644.531250	-15.967110
645.996094	-15.933871
647.460937	-15.908934
648.925781	-15.890407
650.390625	-15.808668
651.855469	-15.582944
653.320312	-15.340661
654.785156	-15.168441
656.250000	-15.121406
657.714844	-15.218060
659.179687	-15.342687
660.644531	-15.433019
662.109375	-15.427946
663.574219	-15.331911
665.039062	-15.241141
666.503906	-15.192550
667.968750	-15.111142
669.433594	-14.996413
670.898437	-14.906028
672.363281	-14.780806
673.828125	-14.662021
675.292969	-14.593715
676.757812	-14.497550
678.222656	-14.402981
679.687500	-14.345241
681.152344	-14.313750
682.617187	-14.289709
684.082031	-14.276112
685.546875	-14.306318
687.011719	-14.330507
688.476562	-14.391958
689.941406	-14.462399
691.406250	-14.505272
692.871094	-14.522397
694.335937	-14.579108
695.800781	-14.659226
697.265625	-14.749522
698.730469	-14.818789
700.195312	-14.870453
701.660156	-14.920020
703.125000	-14.993368
704.589844	-15.065835
706.054687	-15.069096
707.519531	-15.104514
708.984375	-15.147408
710.449219	-15.190317
711.914062	-15.214933
713.378906	-15.214313
714.843750	-15.209917
716.308594	-15.211866
717.773437	-15.228044
719.238281	-15.285213
720.703125	-15.341379
722.167969	-15.343608
723.632812	-15.368338
725.097656	-15.382749
726.562500	-15.441526
728.027344	-15.530444
729.492187	-15.589707
730.957031	-15.639027
732.421875	-15.657342
733.886719	-15.662531
735.351562	-15.675879
736.816406	-15.695028
738.281250	-15.729392
739.746094	-15.742959
741.210937	-15.752487
742.675781	-15.770879
744.140625	-15.798211
745.605469	-15.804834
747.070312	-15.815194
748.535156	-15.838042
750.000000	-15.750533
751.464844	-15.412719
752.929687	-15.008563
754.394531	-14.755359
755.859375	-14.666792
757.324219	-14.734160
758.789062	-14.967500
760.253906	-15.333834
761.718750	-15.757738
763.183594	-15.986618
764.648437	-16.056355
766.113281	-16.059770
767.578125	-16.102587
769.042969	-16.066335
770.507812	-16.033084
771.972656	-15.999921
773.437500	-16.009809
774.902344	-16.043847
776.367187	-16.088033
777.832031	-16.106531
779.296875	-16.118625
780.761719	-16.154503
782.226562	-16.147545
783.691406	-16.151270
785.156250	-16.142589
786.621094	-16.137171
788.085937	-16.130316
789.550781	-16.120192
791.015625	-16.136177
792.480469	-16.089126
793.945312	-16.062067
795.410156	-16.044298
796.875000	-16.013007
798.339844	-15.917336
799.804687	-15.877877
801.269531	-15.841891
802.734375	-15.812864
804.199219	-15.778036
805.664062	-15.754999
807.128906	-15.721204
808.593750	-15.675326
810.058594	-15.617610
811.523437	-15.546338
812.988281	-15.463138
814.453125	-15.419961
815.917969	-15.336728
817.382812	-15.244349
818.847656	-15.194709
820.312500	-15.164708
821.777344	-15.212290
823.242187	-15.253035
824.707031	-15.340185
826.171875	-15.417283
827.636719	-15.470951
829.101562	-15.569483
830.566406	-15.664893
832.031250	-15.740350
833.496094	-15.804017
834.960937	-15.906345
836.425781	-16.035900
837.890625	-16.111183
839.355469	-16.174125
840.820312	-16.194542
842.285156	-16.226843
843.750000	-16.233995
845.214844	-16.279522
846.679687	-16.309556
848.144531	-16.314638
849.609375	-16.218524
851.074219	-15.892261
852.539062	-15.468882
854.003906	-15.167693
855.468750	-15.036819
856.933594	-15.071632
858.398437	-15.270707
859.863281	-15.639593
861.328125	-16.116848
862.792969	-16.407011
864.257812	-16.496762
865.722656	-16.531414
867.187500	-16.540057
868.652344	-16.537497
870.117187	-16.559186
871.582031	-16.547370
873.046875	-16.553990
874.511719	-16.561559
875.976562	-16.567618
877.441406	-16.576837
878.906250	-16.525815
880.371094	-16.508229
881.835937	-16.486308
883.300781	-16.507454
884.765625	-16.494743
886.230469	-16.486551
887.695312	-16.495940
889.160156	-16.493595
890.625000	-16.515856
892.089844	-16.560841
893.554687	-16.548995
895.019531	-16.545699
896.484375	-16.511874
897.949219	-16.445353
899.414062	-16.437380
900.878906	-16.406192
902.343750	-16.388081
903.808594	-16.347409
905.273437	-16.317040
906.738281	-16.296032
908.203125	-16.276218
909.667969	-16.253606
911.132812	-16.189620
912.597656	-16.150797
914.062500	-16.121162
915.527344	-16.101532
916.992187	-16.053533
918.457031	-16.023332
919.921875	-16.002539
921.386719	-15.985919
922.851562	-15.967978
924.316406	-15.913918
925.781250	-15.840744
927.246094	-15.800211
928.710937	-15.728798
930.175781	-15.690829
931.640625	-15.663389
933.105469	-15.600566
934.570312	-15.561367
936.035156	-15.502326
937.500000	-15.432453
938.964844	-15.369342
940.429687	-15.315597
941.894531	-15.254125
943.359375	-15.173686
944.824219	-15.106863
946.289062	-15.003190
947.753906	-14.873899
949.218750	-14.807309
950.683594	-14.773803
952.148437	-14.687953
953.613281	-14.622788
955.078125	-14.620773
956.542969	-14.603633
958.007812	-14.643948
959.472656	-14.703598
960.937500	-14.771067
962.402344	-14.902837
963.867187	-14.972470
965.332031	-15.064030
966.796875	-15.172581
968.261719	-15.293122
969.726562	-15.368542
971.191406	-15.424850
972.656250	-15.499320
974.121094	-15.582624
975.585937	-15.627261
977.050781	-15.710194
978.515625	-15.733607
979.980469	-15.775612
981.445312	-15.837727
982.910156	-15.927041
984.375000	-15.987395
985.839844	-16.033474
987.304687	-16.093225
988.769531	-16.182767
990.234375	-16.198002
991.699219	-16.231666
993.164062	-16.267655
994.628906	-16.321245
996.093750	-16.388105
997.558594	-16.438269

