# Cursors in Graph
f in Hz	A in dBV
180.175781	-13.756994
294.433594	-13.483370
399.902344	-13.779854
499.511719	-14.060792
704.589844	-14.134169

# Spectral Data
f in Hz	A in dBV
0.000000	-14.712514
1.464844	-13.979641
2.929687	-13.413266
4.394531	-13.010944
5.859375	-12.703805
7.324219	-12.509096
8.789062	-12.428735
10.253906	-12.440696
11.718750	-12.547943
13.183594	-12.706219
14.648437	-12.897759
16.113281	-13.049136
17.578125	-13.078692
19.042969	-13.086283
20.507812	-13.066406
21.972656	-13.039495
23.437500	-13.009597
24.902344	-12.893603
26.367187	-12.674588
27.832031	-12.469512
29.296875	-12.329027
30.761719	-12.243984
32.226562	-12.214506
33.691406	-12.232771
35.156250	-12.332641
36.621094	-12.486342
38.085937	-12.719542
39.550781	-12.947473
41.015625	-13.115323
42.480469	-13.204012
43.945312	-13.169822
45.410156	-13.124431
46.875000	-13.079020
48.339844	-13.011209
49.804687	-12.721130
51.269531	-12.172215
52.734375	-11.723788
54.199219	-11.451926
55.664062	-11.343317
57.128906	-11.399717
58.593750	-11.622220
60.058594	-12.020898
61.523437	-12.601396
62.988281	-13.060239
64.453125	-13.221956
65.917969	-13.279686
67.382812	-13.315904
68.847656	-13.348925
70.312500	-13.382984
71.777344	-13.458326
73.242187	-13.571300
74.707031	-13.677417
76.171875	-13.785609
77.636719	-13.852995
79.101562	-13.890590
80.566406	-13.942895
82.031250	-14.004941
83.496094	-14.043051
84.960937	-14.099585
86.425781	-14.158295
87.890625	-14.212901
89.355469	-14.246515
90.820312	-14.294870
92.285156	-14.326008
93.750000	-14.360410
95.214844	-14.401979
96.679687	-14.393919
98.144531	-14.324184
99.609375	-14.215057
101.074219	-14.101139
102.539062	-13.994312
104.003906	-13.932218
105.468750	-13.922394
106.933594	-13.878397
108.398437	-13.791686
109.863281	-13.706149
111.328125	-13.612877
112.792969	-13.505287
114.257812	-13.390090
115.722656	-13.268408
117.187500	-13.194836
118.652344	-13.157520
120.117187	-13.168478
121.582031	-13.198985
123.046875	-13.235920
124.511719	-13.221539
125.976562	-13.194393
127.441406	-13.198960
128.906250	-13.237879
130.371094	-13.295938
131.835937	-13.347746
133.300781	-13.302274
134.765625	-13.243262
136.230469	-13.243847
137.695312	-13.286532
139.160156	-13.368040
140.625000	-13.386654
142.089844	-13.373646
143.554687	-13.382118
145.019531	-13.414928
146.484375	-13.424823
147.949219	-13.435950
149.414062	-13.239759
150.878906	-12.821554
152.343750	-12.420538
153.808594	-12.120938
155.273437	-11.970742
156.738281	-11.982574
158.203125	-12.151278
159.667969	-12.487900
161.132812	-12.965107
162.597656	-13.507963
164.062500	-13.794256
165.527344	-13.857500
166.992187	-13.882693
168.457031	-13.912847
169.921875	-13.923772
171.386719	-13.892949
172.851562	-13.851102
174.316406	-13.842050
175.781250	-13.824982
177.246094	-13.800952
178.710937	-13.770536
180.175781	-13.756994
181.640625	-13.743287
183.105469	-13.741520
184.570312	-13.783619
186.035156	-13.854549
187.500000	-13.931672
188.964844	-13.918498
190.429687	-13.906378
191.894531	-13.874127
193.359375	-13.867694
194.824219	-13.886840
196.289062	-13.954903
197.753906	-14.020747
199.218750	-14.070809
200.683594	-14.073555
202.148437	-14.056627
203.613281	-14.044745
205.078125	-14.043106
206.542969	-14.001573
208.007812	-13.969830
209.472656	-13.897244
210.937500	-13.845661
212.402344	-13.849209
213.867187	-13.874827
215.332031	-13.903530
216.796875	-13.947443
218.261719	-13.950838
219.726562	-13.930348
221.191406	-13.901936
222.656250	-13.868087
224.121094	-13.851530
225.585937	-13.851587
227.050781	-13.875671
228.515625	-13.888331
229.980469	-13.892053
231.445312	-13.832728
232.910156	-13.749671
234.375000	-13.640859
235.839844	-13.531854
237.304687	-13.470286
238.769531	-13.430469
240.234375	-13.421328
241.699219	-13.449619
243.164062	-13.483843
244.628906	-13.467391
246.093750	-13.470442
247.558594	-13.482710
249.023437	-13.509135
250.488281	-13.444105
251.953125	-13.169154
253.417969	-12.887225
254.882812	-12.705609
256.347656	-12.679576
257.812500	-12.788394
259.277344	-13.034625
260.742187	-13.346342
262.207031	-13.549651
263.671875	-13.572687
265.136719	-13.587213
266.601562	-13.610896
268.066406	-13.640644
269.531250	-13.672216
270.996094	-13.701156
272.460937	-13.729065
273.925781	-13.765206
275.390625	-13.799509
276.855469	-13.828469
278.320312	-13.831769
279.785156	-13.822749
281.250000	-13.811608
282.714844	-13.789869
284.179687	-13.778870
285.644531	-13.747860
287.109375	-13.677258
288.574219	-13.602973
290.039062	-13.530092
291.503906	-13.486035
292.968750	-13.474405
294.433594	-13.483370
295.898437	-13.502642
297.363281	-13.536834
298.828125	-13.599338
300.292969	-13.697547
301.757812	-13.761828
303.222656	-13.806228
304.687500	-13.839741
306.152344	-13.816032
307.617187	-13.785402
309.082031	-13.817402
310.546875	-13.858342
312.011719	-13.884679
313.476562	-13.925876
314.941406	-13.961453
316.406250	-13.953469
317.871094	-13.968960
319.335937	-13.968413
320.800781	-13.943124
322.265625	-13.940938
323.730469	-13.935271
325.195312	-13.944183
326.660156	-13.948550
328.125000	-13.984652
329.589844	-14.053926
331.054687	-14.125418
332.519531	-14.145453
333.984375	-14.168042
335.449219	-14.159967
336.914062	-14.194513
338.378906	-14.183732
339.843750	-14.163090
341.308594	-14.122769
342.773437	-14.117899
344.238281	-14.083862
345.703125	-14.046181
347.167969	-14.000230
348.632812	-14.016010
350.097656	-13.969200
351.562500	-13.726054
353.027344	-13.439821
354.492187	-13.235747
355.957031	-13.168592
357.421875	-13.233046
358.886719	-13.431525
360.351562	-13.714274
361.816406	-13.969306
363.281250	-14.060236
364.746094	-14.077780
366.210937	-14.067158
367.675781	-14.100995
369.140625	-14.083847
370.605469	-14.051725
372.070312	-14.046177
373.535156	-14.036389
375.000000	-14.066665
376.464844	-14.094449
377.929687	-14.095160
379.394531	-14.081481
380.859375	-14.098237
382.324219	-14.089587
383.789062	-14.074677
385.253906	-14.022129
386.718750	-13.965776
388.183594	-13.928620
389.648437	-13.902262
391.113281	-13.896550
392.578125	-13.894395
394.042969	-13.867248
395.507812	-13.833142
396.972656	-13.796267
398.437500	-13.787645
399.902344	-13.779854
401.367187	-13.789935
402.832031	-13.796156
404.296875	-13.804685
405.761719	-13.839776
407.226562	-13.875943
408.691406	-13.893030
410.156250	-13.889212
411.621094	-13.913301
413.085937	-13.923507
414.550781	-13.928048
416.015625	-13.915128
417.480469	-13.888990
418.945312	-13.863157
420.410156	-13.800310
421.875000	-13.769803
423.339844	-13.780365
424.804687	-13.818405
426.269531	-13.874952
427.734375	-13.893760
429.199219	-13.883954
430.664062	-13.862065
432.128906	-13.857359
433.593750	-13.870394
435.058594	-13.915554
436.523437	-13.933595
437.988281	-13.932374
439.453125	-13.898691
440.917969	-13.900628
442.382812	-13.866176
443.847656	-13.863585
445.312500	-13.869300
446.777344	-13.890219
448.242187	-13.898532
449.707031	-13.829101
451.171875	-13.556790
452.636719	-13.273602
454.101562	-13.046442
455.566406	-12.956584
457.031250	-12.987202
458.496094	-13.154398
459.960937	-13.421184
461.425781	-13.728095
462.890625	-13.899760
464.355469	-13.932716
465.820312	-13.921116
467.285156	-13.941100
468.750000	-13.936711
470.214844	-13.923008
471.679687	-13.912157
473.144531	-13.911205
474.609375	-13.904387
476.074219	-13.903027
477.539062	-13.895231
479.003906	-13.884190
480.468750	-13.890821
481.933594	-13.911277
483.398437	-13.929964
484.863281	-13.948630
486.328125	-13.987067
487.792969	-13.992343
489.257812	-13.995942
490.722656	-13.998026
492.187500	-13.991783
493.652344	-13.995812
495.117187	-14.011874
496.582031	-14.033278
498.046875	-14.069305
499.511719	-14.060792
500.976562	-14.064226
502.441406	-14.078601
503.906250	-14.088621
505.371094	-14.094631
506.835937	-14.088254
508.300781	-14.063781
509.765625	-14.058332
511.230469	-14.069712
512.695312	-14.071738
514.160156	-14.080041
515.625000	-14.103518
517.089844	-14.104623
518.554687	-14.130223
520.019531	-14.150727
521.484375	-14.173378
522.949219	-14.187147
524.414062	-14.195612
525.878906	-14.180241
527.343750	-14.194846
528.808594	-14.176628
530.273437	-14.188460
531.738281	-14.214240
533.203125	-14.205955
534.667969	-14.179414
536.132812	-14.157336
537.597656	-14.112854
539.062500	-14.093682
540.527344	-14.080729
541.992187	-14.083995
543.457031	-14.078658
544.921875	-14.105579
546.386719	-14.105355
547.851562	-14.090468
549.316406	-14.015997
550.781250	-13.835984
552.246094	-13.595278
553.710937	-13.397976
555.175781	-13.290770
556.640625	-13.280215
558.105469	-13.373544
559.570312	-13.581884
561.035156	-13.835208
562.500000	-13.964026
563.964844	-13.977045
565.429687	-13.968711
566.894531	-13.953595
568.359375	-13.949680
569.824219	-13.954452
571.289062	-13.974915
572.753906	-13.972300
574.218750	-13.972264
575.683594	-13.968666
577.148437	-13.941014
578.613281	-13.936750
580.078125	-13.947879
581.542969	-13.958427
583.007812	-13.997247
584.472656	-14.009999
585.937500	-14.000124
587.402344	-13.989084
588.867187	-13.976055
590.332031	-13.966930
591.796875	-13.988219
593.261719	-13.983198
594.726562	-14.000162
596.191406	-14.020988
597.656250	-14.026321
599.121094	-14.072168
600.585937	-14.088917
602.050781	-14.097979
603.515625	-14.123028
604.980469	-14.146405
606.445312	-14.139208
607.910156	-14.142673
609.375000	-14.144406
610.839844	-14.165735
612.304687	-14.189657
613.769531	-14.209011
615.234375	-14.211459
616.699219	-14.223373
618.164062	-14.240276
619.628906	-14.244099
621.093750	-14.234852
622.558594	-14.255769
624.023437	-14.273758
625.488281	-14.267906
626.953125	-14.271405
628.417969	-14.258079
629.882812	-14.277797
631.347656	-14.280956
632.812500	-14.269357
634.277344	-14.298287
635.742187	-14.308999
637.207031	-14.284884
638.671875	-14.246339
640.136719	-14.243051
641.601562	-14.242391
643.066406	-14.290689
644.531250	-14.333234
645.996094	-14.335957
647.460937	-14.327583
648.925781	-14.327683
650.390625	-14.219894
651.855469	-14.040859
653.320312	-13.845575
654.785156	-13.699759
656.250000	-13.670308
657.714844	-13.762585
659.179687	-13.930095
660.644531	-14.150351
662.109375	-14.321095
663.574219	-14.362825
665.039062	-14.381253
666.503906	-14.397820
667.968750	-14.410546
669.433594	-14.409784
670.898437	-14.407503
672.363281	-14.407598
673.828125	-14.407773
675.292969	-14.438257
676.757812	-14.479506
678.222656	-14.476382
679.687500	-14.470045
681.152344	-14.452668
682.617187	-14.426370
684.082031	-14.406496
685.546875	-14.405399
687.011719	-14.389098
688.476562	-14.367014
689.941406	-14.337083
691.406250	-14.320459
692.871094	-14.320047
694.335937	-14.351410
695.800781	-14.309494
697.265625	-14.274636
698.730469	-14.228534
700.195312	-14.173663
701.660156	-14.145311
703.125000	-14.122304
704.589844	-14.134169
706.054687	-14.155081
707.519531	-14.194232
708.984375	-14.246187
710.449219	-14.278626
711.914062	-14.293325
713.378906	-14.282242
714.843750	-14.271531
716.308594	-14.278820
717.773437	-14.304382
719.238281	-14.346443
720.703125	-14.367767
722.167969	-14.349745
723.632812	-14.337241
725.097656	-14.326818
726.562500	-14.350939
728.027344	-14.403420
729.492187	-14.443140
730.957031	-14.456762
732.421875	-14.461839
733.886719	-14.463436
735.351562	-14.454603
736.816406	-14.450463
738.281250	-14.431656
739.746094	-14.432362
741.210937	-14.467346
742.675781	-14.487482
744.140625	-14.518138
745.605469	-14.555637
747.070312	-14.545167
748.535156	-14.472626
750.000000	-14.243432
751.464844	-13.865637
752.929687	-13.534002
754.394531	-13.304511
755.859375	-13.204793
757.324219	-13.265852
758.789062	-13.484436
760.253906	-13.850387
761.718750	-14.264160
763.183594	-14.531236
764.648437	-14.600444
766.113281	-14.648589
767.578125	-14.701502
769.042969	-14.709074
770.507812	-14.681051
771.972656	-14.676500
773.437500	-14.653281
774.902344	-14.651667
776.367187	-14.642496
777.832031	-14.665516
779.296875	-14.677078
780.761719	-14.672772
782.226562	-14.656455
783.691406	-14.626768
785.156250	-14.619042
786.621094	-14.608842
788.085937	-14.609440
789.550781	-14.620720
791.015625	-14.633091
792.480469	-14.628024
793.945312	-14.651668
795.410156	-14.669573
796.875000	-14.692863
798.339844	-14.722125
799.804687	-14.729133
801.269531	-14.733067
802.734375	-14.732092
804.199219	-14.712814
805.664062	-14.712443
807.128906	-14.709575
808.593750	-14.724088
810.058594	-14.746374
811.523437	-14.742856
812.988281	-14.749325
814.453125	-14.758152
815.917969	-14.766536
817.382812	-14.770118
818.847656	-14.783820
820.312500	-14.773122
821.777344	-14.776858
823.242187	-14.788293
824.707031	-14.828221
826.171875	-14.855020
827.636719	-14.856159
829.101562	-14.846621
830.566406	-14.819688
832.031250	-14.824753
833.496094	-14.794160
834.960937	-14.774690
836.425781	-14.772859
837.890625	-14.774686
839.355469	-14.784729
840.820312	-14.784788
842.285156	-14.785961
843.750000	-14.779602
845.214844	-14.789201
846.679687	-14.755316
848.144531	-14.686431
849.609375	-14.511671
851.074219	-14.176182
852.539062	-13.823599
854.003906	-13.564720
855.468750	-13.435335
856.933594	-13.450396
858.398437	-13.623245
859.863281	-13.940081
861.328125	-14.336628
862.792969	-14.668005
864.257812	-14.776431
865.722656	-14.816534
867.187500	-14.835852
868.652344	-14.861132
870.117187	-14.878894
871.582031	-14.857497
873.046875	-14.843681
874.511719	-14.848938
875.976562	-14.861698
877.441406	-14.854225
878.906250	-14.864716
880.371094	-14.889185
881.835937	-14.872003
883.300781	-14.876254
884.765625	-14.891674
886.230469	-14.898040
887.695312	-14.927452
889.160156	-14.931684
890.625000	-14.963493
892.089844	-14.967721
893.554687	-14.977534
895.019531	-14.976962
896.484375	-14.957604
897.949219	-14.943268
899.414062	-14.947728
900.878906	-14.941948
902.343750	-14.942608
903.808594	-14.921467
905.273437	-14.852163
906.738281	-14.792861
908.203125	-14.740716
909.667969	-14.722302
911.132812	-14.774995
912.597656	-14.842904
914.062500	-14.940288
915.527344	-15.000052
916.992187	-14.981923
918.457031	-14.960335
919.921875	-14.944733
921.386719	-14.943968
922.851562	-14.965297
924.316406	-14.970251
925.781250	-14.948211
927.246094	-14.962936
928.710937	-14.961898
930.175781	-14.947078
931.640625	-14.923184
933.105469	-14.911144
934.570312	-14.888246
936.035156	-14.877390
937.500000	-14.874612
938.964844	-14.874861
940.429687	-14.887548
941.894531	-14.899315
943.359375	-14.902775
944.824219	-14.894410
946.289062	-14.877196
947.753906	-14.871649
949.218750	-14.789070
950.683594	-14.542058
952.148437	-14.231796
953.613281	-13.962953
955.078125	-13.813299
956.542969	-13.801265
958.007812	-13.918075
959.472656	-14.166415
960.937500	-14.495273
962.402344	-14.763289
963.867187	-14.865503
965.332031	-14.889513
966.796875	-14.921718
968.261719	-14.937597
969.726562	-14.931746
971.191406	-14.928943
972.656250	-14.936808
974.121094	-14.959185
975.585937	-14.941586
977.050781	-14.934425
978.515625	-14.901489
979.980469	-14.856825
981.445312	-14.823959
982.910156	-14.807887
984.375000	-14.856866
985.839844	-14.903538
987.304687	-14.921809
988.769531	-14.933880
990.234375	-14.926583
991.699219	-14.906470
993.164062	-14.869714
994.628906	-14.870935
996.093750	-14.873055
997.558594	-14.858431

